Frequency (Hz)	Level (dB)
43.066406	-87.691132
86.132813	-76.673119
129.199219	-71.781860
172.265625	-65.466148
215.332031	-38.693554
258.398438	-31.602406
301.464844	-36.614838
344.531250	-65.751839
387.597656	-77.493134
430.664063	-79.204208
473.730469	-54.542576
516.796875	-46.454094
559.863281	-50.516640
602.929688	-75.044060
645.996094	-83.861153
689.062500	-78.856773
732.128906	-56.071644
775.195313	-46.710602
818.261719	-49.702820
861.328125	-70.407532
904.394531	-83.664101
947.460938	-89.279755
990.527344	-79.802818
1033.593750	-68.873062
1076.660156	-70.576309
1119.726563	-87.680244
1162.792969	-98.450470
1205.859375	-101.429329
1248.925781	-93.361511
1291.992188	-80.870232
1335.058594	-80.753723
1378.125000	-93.072624
1421.191406	-99.333725
1464.257813	-97.509697
1507.324219	-88.393265
1550.390625	-71.634041
1593.457031	-69.983154
1636.523438	-81.100197
1679.589844	-98.296547
1722.656250	-100.774223
1765.722656	-97.775177
1808.789063	-77.171745
1851.855469	-73.152176
1894.921875	-81.231331
1937.988281	-101.718185
1981.054688	-106.926643
2024.121094	-109.303986
2067.187500	-90.352852
2110.253906	-83.302277
2153.320313	-88.260826
2196.386719	-106.615944
2239.453125	-106.973145
2282.519531	-107.926743
2325.585938	-95.246056
2368.652344	-84.399529
2411.718750	-86.027016
2454.785156	-101.411652
2497.851563	-106.933235
2540.917969	-108.671974
2583.984375	-107.504555
2627.050781	-92.682098
2670.117188	-90.320816
2713.183594	-99.643227
2756.250000	-108.783630
2799.316406	-108.722191
2842.382813	-108.351151
2885.449219	-104.725029
2928.515625	-100.407341
2971.582031	-104.495125
3014.648438	-109.373795
3057.714844	-109.766747
3100.781250	-109.536964
3143.847656	-108.561699
3186.914063	-100.655190
3229.980469	-100.424400
3273.046875	-108.932846
3316.113281	-111.204376
3359.179688	-110.742599
3402.246094	-103.471642
3445.312500	-97.281303
3488.378906	-91.830299
3531.445313	-96.857483
3574.511719	-110.046959
3617.578125	-110.250137
3660.644531	-108.262550
3703.710938	-106.869141
3746.777344	-107.334129
3789.843750	-108.303757
3832.910156	-110.588531
3875.976563	-109.957977
3919.042969	-110.310356
3962.109375	-110.538773
4005.175781	-110.546593
4048.242188	-107.243759
4091.308594	-107.120392
4134.375000	-110.902809
4177.441406	-110.384933
4220.507813	-110.375473
4263.574219	-110.521835
4306.640625	-110.771721
4349.707031	-109.001633
4392.773438	-109.299866
4435.839844	-109.690659
4478.906250	-111.029610
4521.972656	-110.999413
4565.039063	-110.489868
4608.105469	-109.963394
4651.171875	-110.816101
4694.238281	-111.370781
4737.304688	-111.681602
4780.371094	-111.607857
4823.437500	-111.313927
4866.503906	-111.531433
4909.570313	-110.518471
4952.636719	-109.936813
4995.703125	-111.029533
5038.769531	-111.338722
5081.835938	-110.658714
5124.902344	-111.244125
5167.968750	-110.505630
5211.035156	-110.813454
5254.101563	-111.113037
5297.167969	-111.938660
5340.234375	-111.939766
5383.300781	-111.713097
5426.367188	-110.816574
5469.433594	-109.850143
5512.500000	-110.263000
5555.566406	-108.648804
5598.632813	-110.327538
5641.699219	-111.681664
5684.765625	-111.516960
5727.832031	-110.813202
5770.898438	-110.026054
5813.964844	-110.278481
5857.031250	-110.010155
5900.097656	-111.680511
5943.164063	-111.657585
5986.230469	-111.000938
6029.296875	-110.489204
6072.363281	-111.042206
6115.429688	-110.803780
6158.496094	-109.726036
6201.562500	-109.746750
6244.628906	-110.570313
6287.695313	-111.273529
6330.761719	-112.128777
6373.828125	-111.349121
6416.894531	-110.980026
6459.960938	-111.100029
6503.027344	-111.016129
6546.093750	-111.005074
6589.160156	-111.654190
6632.226563	-110.758621
6675.292969	-110.979065
6718.359375	-110.991394
6761.425781	-110.990875
6804.492188	-111.364380
6847.558594	-110.120796
6890.625000	-110.311852
6933.691406	-111.837471
6976.757813	-111.833832
7019.824219	-112.062347
7062.890625	-112.949989
7105.957031	-112.729164
7149.023438	-111.650574
7192.089844	-111.312584
7235.156250	-112.066635
7278.222656	-111.861450
7321.289063	-111.518982
7364.355469	-112.041954
7407.421875	-111.856339
7450.488281	-111.511002
7493.554688	-111.563034
7536.621094	-110.567688
7579.687500	-111.598160
7622.753906	-112.439972
7665.820313	-113.832375
7708.886719	-113.879517
7751.953125	-112.393021
7795.019531	-111.330772
7838.085938	-111.709724
7881.152344	-111.784813
7924.218750	-111.253601
7967.285156	-111.466568
8010.351563	-112.955864
8053.417969	-113.700485
8096.484375	-113.016739
8139.550781	-112.677025
8182.617188	-111.343155
8225.683594	-111.247162
8268.750000	-112.388733
8311.816406	-112.700287
8354.882813	-112.615852
8397.949219	-113.574898
8441.015625	-113.638557
8484.082031	-113.067322
8527.148438	-111.904297
8570.214844	-111.968971
8613.281250	-113.262245
8656.347656	-113.964134
8699.414063	-113.032776
8742.480469	-113.340706
8785.546875	-114.824554
8828.613281	-115.690414
8871.679688	-116.296898
8914.746094	-116.046898
8957.812500	-116.176003
9000.878906	-116.688240
9043.945313	-117.134018
9087.011719	-118.581970
9130.078125	-119.312904
9173.144531	-118.303543
9216.210938	-117.935074
9259.277344	-116.286201
9302.343750	-116.554672
9345.410156	-117.302811
9388.476563	-116.292496
9431.542969	-117.782112
9474.609375	-117.996796
9517.675781	-117.017754
9560.742188	-117.002022
9603.808594	-117.025291
9646.875000	-116.257736
9689.941406	-116.600792
9733.007813	-117.817665
9776.074219	-117.238770
9819.140625	-116.770302
9862.207031	-117.927734
9905.273438	-117.116257
9948.339844	-117.421974
9991.406250	-118.539314
10034.472656	-117.046448
10077.539063	-116.315567
10120.605469	-115.841751
10163.671875	-115.903542
10206.738281	-116.059723
10249.804688	-116.914146
10292.871094	-117.590981
10335.937500	-116.642761
10379.003906	-116.254906
10422.070313	-117.867905
10465.136719	-117.400696
10508.203125	-117.534187
10551.269531	-117.615608
10594.335938	-117.269493
10637.402344	-116.712708
10680.468750	-116.388046
10723.535156	-116.003174
10766.601563	-115.479431
10809.667969	-116.493942
10852.734375	-118.018326
10895.800781	-117.444839
10938.867188	-115.685524
10981.933594	-115.625031
11025.000000	-117.519005
11068.066406	-116.974426
11111.132813	-116.306046
11154.199219	-116.920685
11197.265625	-116.325348
11240.332031	-116.033600
11283.398438	-116.876404
11326.464844	-117.026047
11369.531250	-117.865662
11412.597656	-118.057343
11455.664063	-117.367813
11498.730469	-116.511612
11541.796875	-117.431213
11584.863281	-116.948189
11627.929688	-116.791962
11670.996094	-116.129112
11714.062500	-117.304153
11757.128906	-117.656288
11800.195313	-118.361961
11843.261719	-117.785416
11886.328125	-117.673149
11929.394531	-117.346504
11972.460938	-117.618095
12015.527344	-117.755165
12058.593750	-117.924561
12101.660156	-117.283340
12144.726563	-116.187164
12187.792969	-116.332710
12230.859375	-117.065819
12273.925781	-117.095726
12316.992188	-116.606651
12360.058594	-116.347427
12403.125000	-116.460213
12446.191406	-116.436813
12489.257813	-116.642532
12532.324219	-117.611450
12575.390625	-117.803291
12618.457031	-116.418114
12661.523438	-116.572479
12704.589844	-117.361794
12747.656250	-116.975243
12790.722656	-116.438133
12833.789063	-117.658966
12876.855469	-118.191681
12919.921875	-117.380722
12962.988281	-115.853981
13006.054688	-116.721550
13049.121094	-116.627205
13092.187500	-116.089294
13135.253906	-116.983391
13178.320313	-118.271637
13221.386719	-117.397858
13264.453125	-116.687706
13307.519531	-117.186974
13350.585938	-117.210213
13393.652344	-117.570168
13436.718750	-117.397255
13479.785156	-117.698326
13522.851563	-117.671928
13565.917969	-117.172592
13608.984375	-116.707741
13652.050781	-117.165703
13695.117188	-116.693428
13738.183594	-116.142975
13781.250000	-116.053619
13824.316406	-116.465660
13867.382813	-117.828644
13910.449219	-118.583572
13953.515625	-118.399055
13996.582031	-117.112213
14039.648438	-117.720802
14082.714844	-116.487473
14125.781250	-117.373589
14168.847656	-118.678581
14211.914063	-118.102180
14254.980469	-117.673790
14298.046875	-117.287598
14341.113281	-117.649330
14384.179688	-117.919037
14427.246094	-117.808716
14470.312500	-117.616043
14513.378906	-117.777428
14556.445313	-118.165443
14599.511719	-117.394798
14642.578125	-116.821121
14685.644531	-116.519920
14728.710938	-117.097725
14771.777344	-117.614777
14814.843750	-117.789513
14857.910156	-117.936859
14900.976563	-117.973602
14944.042969	-117.765251
14987.109375	-118.060303
15030.175781	-117.063347
15073.242188	-117.652916
15116.308594	-117.834633
15159.375000	-118.032875
15202.441406	-117.667458
15245.507813	-117.000816
15288.574219	-117.691017
15331.640625	-117.539642
15374.707031	-118.405319
15417.773438	-117.720825
15460.839844	-116.926857
15503.906250	-117.268181
15546.972656	-117.520729
15590.039063	-117.970322
15633.105469	-118.999359
15676.171875	-118.289932
15719.238281	-118.409653
15762.304688	-119.207527
15805.371094	-120.197807
15848.437500	-120.653877
15891.503906	-120.739037
15934.570313	-121.475327
15977.636719	-121.324539
16020.703125	-120.376160
16063.769531	-119.369408
16106.835938	-119.019119
16149.902344	-120.250641
16192.968750	-121.087379
16236.035156	-121.248161
16279.101563	-121.470406
16322.167969	-120.656151
16365.234375	-120.909058
16408.300781	-120.836380
16451.367188	-120.803406
16494.433594	-121.212448
16537.500000	-120.163605
16580.566406	-120.055817
16623.632813	-120.014069
16666.699219	-120.980774
16709.765625	-121.568321
16752.832031	-121.220001
16795.898438	-120.237968
16838.964844	-120.777885
16882.031250	-121.182686
16925.097656	-121.069969
16968.164063	-121.524117
17011.230469	-119.725349
17054.296875	-119.226547
17097.363281	-119.375618
17140.429688	-120.105888
17183.496094	-121.400368
17226.562500	-120.711006
17269.628906	-119.638115
17312.695313	-120.855881
17355.761719	-120.000488
17398.828125	-119.162117
17441.894531	-119.415512
17484.960938	-121.410522
17528.027344	-121.284637
17571.093750	-122.677795
17614.160156	-122.285294
17657.226563	-121.107956
17700.292969	-120.757050
17743.359375	-120.165031
17786.425781	-120.690117
17829.492188	-120.500816
17872.558594	-120.120255
17915.625000	-120.825150
17958.691406	-121.036644
18001.757813	-120.887589
18044.824219	-122.042473
18087.890625	-121.708923
18130.957031	-121.192482
18174.023438	-120.891899
18217.089844	-121.283493
18260.156250	-121.320992
18303.222656	-121.926483
18346.289063	-122.272316
18389.355469	-122.902222
18432.421875	-122.911392
18475.488281	-122.968025
18518.554688	-123.167801
18561.621094	-123.705589
18604.687500	-122.356148
18647.753906	-122.719749
18690.820313	-123.228355
18733.886719	-123.923569
18776.953125	-122.146828
18820.019531	-122.483536
18863.085938	-123.090263
18906.152344	-122.582672
18949.218750	-123.890839
18992.285156	-123.201126
19035.351563	-123.080002
19078.417969	-123.298897
19121.484375	-123.204468
19164.550781	-123.277191
19207.617188	-122.687836
19250.683594	-122.802330
19293.750000	-124.123199
19336.816406	-123.546631
19379.882813	-123.570557
19422.949219	-125.040291
19466.015625	-125.014641
19509.082031	-124.054382
19552.148438	-125.310272
19595.214844	-125.151505
19638.281250	-125.279152
19681.347656	-124.982018
19724.414063	-125.877899
19767.480469	-126.486794
19810.546875	-126.614777
19853.613281	-126.545906
19896.679688	-127.175606
19939.746094	-126.932373
19982.812500	-127.226212
20025.878906	-127.222961
20068.945313	-127.906349
20112.011719	-128.541397
20155.078125	-129.104965
20198.144531	-128.456482
20241.210938	-127.489220
20284.277344	-128.085907
20327.343750	-129.060364
20370.410156	-130.010361
20413.476563	-130.846344
20456.542969	-130.002884
20499.609375	-129.389618
20542.675781	-128.961105
20585.742188	-130.519211
20628.808594	-131.295715
20671.875000	-131.738190
20714.941406	-131.396011
20758.007813	-131.990829
20801.074219	-133.862274
20844.140625	-133.593643
20887.207031	-134.016525
20930.273438	-135.211197
20973.339844	-135.848175
21016.406250	-137.805908
21059.472656	-139.457550
21102.539063	-141.901520
21145.605469	-143.912109
21188.671875	-145.524750
21231.738281	-147.186798
21274.804688	-149.968689
21317.871094	-153.299255
21360.937500	-156.009491
21404.003906	-158.775650
21447.070313	-163.562714
21490.136719	-167.376038
21533.203125	-171.556549
21576.269531	-175.881027
21619.335938	-180.347900
21662.402344	-186.511566
21705.468750	-192.330750
21748.535156	-181.950455
21791.601563	-177.397690
21834.667969	-185.283356
21877.734375	-197.084244
21920.800781	-198.799988
21963.867188	-194.765488
22006.933594	-198.308105
